#Corrente'	Densidade de f B
#H/A/m	B/mT
#
-3107.465	-313.571
-3103.657	-314.102
-3099.848	-313.571
-3096.040	-313.571
-3084.616	-311.445
-3057.959	-312.508
-3031.301	-309.850
-2962.754	-305.067
-2939.905	-308.787
-2932.289	-308.256
-2875.167	-300.815
-2867.550	-306.130
-2859.934	-306.130
-2833.277	-297.095
-2821.852	-297.095
-2810.428	-304.535
-2772.346	-304.004
-2768.538	-302.941
-2745.689	-293.375
-2711.415	-290.717
-2699.991	-300.815
-2692.375	-289.123
-2665.717	-288.060
-2635.252	-285.402
-2631.444	-298.158
-2612.403	-284.339
-2608.595	-297.095
-2593.362	-296.563
-2578.129	-295.500
-2555.280	-294.969
-2543.535	-281.151
-2534.795	-279.025
-2528.623	-294.437
-2518.562	-278.493
-2484.848	-276.367
-2467.693	-292.312
-2463.885	-291.780
-2452.460	-291.249
-2451.134	-274.241
-2437.399	-273.178
-2414.923	-271.584
-2383.913	-288.591
-2376.297	-288.060
-2364.976	-268.927
-2345.831	-286.997
-2332.510	-267.332
-2330.599	-286.997
-2326.267	-265.738
-2319.174	-285.934
-2297.548	-263.080
-2284.900	-284.339
-2277.569	-262.017
-2241.358	-259.360
-2235.394	-282.214
-2223.970	-281.682
-2212.545	-280.619
-2205.147	-255.108
-2196.406	-256.171
-2189.696	-279.556
-2151.615	-277.962
-2150.205	-251.919
-2105.917	-275.836
-2096.512	-247.136
-2077.782	-247.136
-2034.079	-242.353
-2025.945	-272.115
-2024.090	-242.353
-2010.712	-272.115
-1977.889	-238.101
-1949.782	-268.395
-1930.741	-267.864
-1920.450	-233.318
-1884.239	-231.192
-1882.990	-229.066
-1875.498	-264.675
-1826.800	-224.814
-1798.081	-261.486
-1781.848	-218.968
-1780.600	-260.423
-1778.102	-218.968
-1718.166	-256.703
-1708.177	-256.171
-1675.712	-208.870
-1663.225	-207.807
-1651.987	-252.982
-1638.252	-251.919
-1608.283	-203.024
-1593.299	-248.731
-1582.062	-248.199
-1567.078	-199.835
-1559.585	-197.709
-1555.839	-196.646
-1518.379	-243.947
-1512.136	-191.863
-1498.401	-189.737
-1485.914	-188.142
-1484.666	-241.821
-1458.443	-186.548
-1442.211	-183.891
-1413.491	-238.633
-1412.243	-181.233
-1391.016	-177.513
-1387.270	-236.507
-1359.799	-233.318
-1352.307	-170.604
-1336.074	-172.198
-1331.079	-231.723
-1289.873	-167.946
-1288.625	-163.694
-1244.921	-225.877
-1234.932	-160.506
-1214.953	-155.191
-1213.705	-223.751
-1209.959	-154.659
-1203.715	-221.625
-1187.483	-220.562
-1179.991	-149.876
-1174.996	-151.471
-1161.261	-218.436
-1156.266	-148.813
-1147.525	-217.374
-1121.303	-142.967
-1110.065	-140.310
-1086.341	-212.059
-1083.843	-134.995
-1077.600	-137.652
-1075.103	-212.590
-1035.145	-129.680
-1023.907	-128.086
-1013.918	-207.807
-1002.680	-205.150
-971.463	-121.708
-968.966	-119.582
-912.776	-111.610
-910.278	-111.610
-902.786	-198.240
-896.543	-106.295
-885.305	-194.520
-847.845	-191.331
-840.353	-101.512
-827.866	-95.666
-795.401	-89.288
-782.914	-87.162
-777.920	-186.016
-757.941	-182.296
-742.673	-80.253
-699.322	-73.344
-694.259	-176.450
-684.492	-72.812
-681.772	-172.730
-666.238	-68.560
-626.690	-63.246
-614.141	-58.994
-599.691	-164.226
-555.199	-158.380
-553.297	-48.896
-548.354	-48.896
-523.256	-43.581
-521.354	-155.722
-519.073	-42.518
-514.890	-42.518
-508.805	-152.002
-503.101	-40.392
-498.158	-36.140
-483.327	-35.609
-463.173	-29.763
-461.271	-30.826
-439.215	-142.967
-428.948	-25.511
-426.286	-23.916
-420.582	-140.841
-405.751	-21.259
-388.259	-18.070
-373.808	-15.944
-368.104	-12.224
-349.091	-6.909
-348.330	-132.337
-328.556	-126.491
-315.627	-3.720
-310.303	0.000
-304.979	1.063
-281.402	4.783
-238.431	-113.736
-238.051	13.287
-231.967	19.665
-217.136	27.637
-202.686	-106.295
-175.675	-102.575
-142.635	44.112
-134.406	45.175
-76.358	45.707
-72.190	57.931
-71.442	60.057
-65.083	-88.225
-3.538	61.651
-2.830	61.120
-2.222	61.120
-1.564	-64.309
-0.844	61.651
-0.447	61.120
-0.099	-64.840
-0.074	-64.840
0.422	31.889
29.646	61.651
35.994	61.120
42.113	61.120
45.458	60.588
46.332	61.651
47.358	61.120
51.387	-64.840
57.202	-65.371
59.787	61.651
62.941	79.190
66.970	-66.966
68.574	75.470
68.947	31.889
76.852	79.721
84.284	-63.777
90.394	91.945
96.004	61.651
104.732	73.344
108.223	34.014
112.961	31.889
113.459	-74.938
124.805	61.120
133.408	-66.434
153.482	-57.399
162.833	97.260
174.304	96.197
182.782	39.329
212.581	31.889
214.094	43.581
220.311	35.609
236.150	108.421
237.290	-31.889
275.318	-14.881
278.360	112.673
287.486	51.022
299.655	119.051
323.612	0.000
328.556	121.176
339.964	56.868
353.654	6.909
365.823	125.960
383.315	131.274
393.963	13.287
407.653	62.183
439.976	140.841
440.737	66.434
446.821	140.310
473.060	28.168
508.805	73.875
519.073	151.471
528.580	152.002
533.143	76.532
557.480	46.238
589.423	80.784
601.212	160.506
609.578	85.036
627.831	165.820
638.098	60.057
651.788	88.225
664.337	91.414
674.280	169.541
699.322	95.134
706.167	71.749
706.746	172.198
743.054	99.386
754.195	180.170
764.729	103.106
765.433	180.170
791.655	85.568
797.898	106.295
842.850	114.799
855.337	187.079
864.078	189.205
869.072	187.611
870.321	189.205
880.310	119.582
886.554	103.106
892.797	191.331
911.527	125.428
914.024	193.457
957.728	112.673
960.225	131.274
978.955	136.589
982.701	200.366
983.950	199.303
1021.410	140.841
1023.907	203.555
1042.637	205.150
1056.373	129.149
1075.103	147.219
1090.087	209.401
1100.076	150.939
1110.065	210.464
1126.298	156.254
1147.525	141.904
1165.007	214.716
1173.747	217.905
1196.223	163.163
1209.959	152.533
1213.705	219.499
1239.927	169.009
1257.408	223.220
1278.635	223.751
1309.852	226.940
1346.063	228.535
1347.312	179.107
1357.301	170.072
1386.021	231.723
1412.243	233.849
1414.740	186.548
1415.989	175.918
1429.724	233.849
1465.935	183.359
1482.168	193.457
1492.157	240.227
1515.882	197.709
1520.877	241.290
1567.078	202.492
1583.310	243.947
1589.553	197.177
1590.802	245.010
1607.035	206.744
1629.511	247.136
1649.490	248.731
1658.230	248.731
1661.976	249.794
1669.468	210.996
1683.203	206.213
1685.701	250.325
1710.674	214.716
1718.166	252.982
1721.912	253.514
1750.632	213.122
1756.875	218.968
1775.605	256.703
1789.340	256.703
1803.076	223.220
1831.795	222.688
1835.541	226.409
1853.022	260.954
1877.996	260.954
1902.969	231.723
1915.456	263.612
1930.741	264.675
1970.397	236.507
1976.439	266.269
1982.884	234.912
1991.672	267.332
1995.480	268.395
2001.614	239.695
2005.360	240.227
2018.329	268.927
2025.945	268.927
2059.052	241.290
2075.451	272.115
2079.260	271.584
2112.745	248.199
2124.958	273.710
2152.702	251.388
2155.423	275.304
2175.178	250.856
2177.676	249.262
2208.737	277.430
2220.162	278.493
2241.358	255.640
2243.010	279.025
2252.596	257.234
2265.860	280.088
2269.668	281.151
2285.061	259.892
2300.133	281.682
2338.754	264.143
2342.023	283.808
2353.448	283.808
2358.732	265.738
2368.680	284.339
2410.570	286.465
2424.912	269.458
2429.611	287.528
2438.647	270.521
2448.652	287.528
2451.134	271.053
2463.885	288.591
2474.859	273.178
2479.853	273.178
2501.966	290.186
2517.199	290.717
2524.805	276.899
2538.541	276.899
2539.790	277.430
2547.664	291.780
2574.321	292.843
2578.129	279.556
2581.938	280.619
2616.211	293.906
2623.827	294.969
2627.635	283.276
2631.444	282.745
2654.293	296.032
2665.717	284.871
2692.375	286.465
2722.840	298.689
2745.689	289.654
2757.113	300.284
2768.538	291.249
2779.962	292.843
2783.771	300.284
2795.195	292.843
2799.003	300.815
2821.852	302.410
2833.277	302.410
2859.934	296.563
2882.783	303.473
2886.591	304.004
2932.289	305.067
2936.097	301.347
2962.754	307.193
2966.563	306.661
3000.836	308.256
3031.301	308.256
3035.110	307.193
3050.342	308.787
3096.040	310.913
3099.848	310.913
3103.657	310.913
3107.465	310.913
#3682.498	31.889
#5434.255	31.889
#7075.575	-65.371
#7524.939	31.889
#7620.144	-96.197
