#Corrente'	Densidade de f B
#H/A/m	B/mT
#
3200.191	314.634
3196.269	315.696
3192.347	315.696
3145.286	315.165
2996.257	302.941
2960.961	308.787
2949.196	300.284
2882.525	306.661
2847.229	306.661
2800.167	290.186
2745.262	302.410
2721.731	286.465
2706.044	300.284
2591.144	278.493
2580.546	296.032
2564.859	296.032
2530.705	274.773
2494.699	272.115
2423.674	289.654
2404.684	265.738
2394.397	264.675
2329.551	286.465
2302.098	284.871
2285.093	255.640
2218.225	250.856
2192.288	280.088
2151.357	243.947
2141.304	277.962
2075.487	239.695
2066.790	274.773
2034.337	235.444
1972.613	228.535
1956.979	268.927
1935.321	225.346
1833.732	262.549
1797.726	209.401
1768.150	260.423
1741.146	209.933
1724.429	204.618
1716.713	205.150
1680.707	200.366
1678.135	252.982
1672.991	252.982
1622.840	193.457
1589.406	190.268
1543.113	183.359
1528.968	245.542
1480.102	242.884
1476.245	179.107
1446.668	172.198
1424.807	238.633
1377.228	165.820
1368.227	163.694
1315.504	230.660
1288.499	151.471
1280.784	152.002
1221.631	224.814
1181.767	137.121
1180.481	222.688
1129.044	131.806
1093.038	214.716
1069.892	123.834
1063.462	212.590
991.450	111.078
988.878	205.150
968.303	203.555
925.868	99.386
865.429	91.945
859.000	95.134
846.140	191.331
838.425	81.847
765.127	183.891
743.266	179.107
739.379	68.560
687.971	175.918
675.937	74.938
640.299	52.085
633.642	71.749
552.576	61.651
552.185	162.100
513.806	155.191
492.267	21.259
450.755	51.022
400.628	44.644
335.619	37.203
329.353	131.806
323.478	-9.567
321.129	129.680
291.757	-17.007
274.134	-56.336
269.435	30.294
185.026	20.728
6.481	13.287
2.812	12.755
0.077	-71.218
-49.593	13.287
-54.447	69.092
-69.208	68.560
-73.313	89.288
-92.577	13.287
-93.476	68.560
-99.896	97.260
-106.701	15.944
-125.576	67.497
-206.384	-112.141
-220.874	-114.267
-223.224	68.029
-252.595	23.385
-323.870	7.972
-351.675	-133.932
-384.963	-139.778
-426.866	-2.126
-448.405	-148.282
-458.196	-18.602
-516.156	-157.317
-578.815	-41.987
-593.305	-44.644
-617.194	-169.541
-683.378	-61.120
-696.973	-178.576
-703.402	-180.170
-718.232	-67.497
-798.122	-82.379
-819.136	-189.205
-848.712	-83.973
-879.574	-95.666
-904.007	-197.177
-934.869	-203.024
-965.732	-109.484
-969.589	-110.015
-1017.169	-208.338
-1068.606	-124.365
-1071.177	-213.122
-1076.321	-213.122
-1104.612	-129.680
-1140.618	-218.968
-1180.481	-222.157
-1194.626	-141.372
-1212.630	-146.687
-1238.348	-226.409
-1291.071	-230.660
-1309.074	-159.443
-1320.647	-155.722
-1365.655	-236.507
-1404.233	-238.101
-1410.662	-174.324
-1450.526	-242.353
-1490.390	-183.891
-1509.679	-245.010
-1513.536	-184.422
-1540.541	-247.668
-1567.545	-248.731
-1602.266	-195.052
-1621.554	-198.240
-1652.417	-254.577
-1687.137	-205.150
-1710.283	-257.234
-1777.152	-213.653
-1805.442	-263.612
-1829.875	-265.206
-1900.601	-268.927
-1903.172	-225.877
-1912.174	-226.940
-1941.750	-228.535
-1980.510	-272.647
-1988.354	-273.178
-2009.905	-235.444
-2078.556	-276.367
-2121.780	-244.479
-2132.068	-246.605
-2141.304	-279.556
-2180.522	-282.214
-2192.288	-281.682
-2215.819	-283.276
-2251.659	-255.640
-2291.523	-258.829
-2321.707	-287.528
-2348.104	-264.143
-2376.613	-290.186
-2398.255	-267.864
-2427.596	-292.312
-2427.831	-267.864
-2494.267	-294.437
-2525.641	-295.500
-2543.564	-277.430
-2564.859	-297.095
-2572.703	-298.689
-2579.570	-279.025
-2655.061	-283.808
-2658.982	-301.347
-2694.279	-288.060
-2713.888	-302.941
-2737.418	-290.186
-2749.184	-304.004
-2843.307	-307.193
-2870.760	-299.221
-2878.603	-297.626
-2894.291	-309.319
-2984.492	-312.508
-3004.101	-306.130
-3015.866	-306.130
-3039.397	-314.102
-3168.817	-314.634
-3192.347	-317.822
-3196.269	-317.822
-3200.191	-317.822
-3204.113	-317.822
